Sensor Model:   AB100_Probe2
Serial Number:  AB100_P2
Data Format:    4      (Log Ohms vs. Kelvin)
SetPoint Limit: 300.0      (Kelvin)
Temperature coefficient:  1 (Negative)
Number of Breakpoints:   66

No.   Units      Temperature (K)

1 2.0170333393 300.0
2 2.01911629045 280.0
3 2.02118929907 260.0
4 2.02530586526 240.0
5 2.02938377769 220.0
6 2.03342375549 200.0
7 2.03542973818 190.0
8 2.03742649794 180.0
9 2.04139268516 170.0
10 2.04532297879 160.0
11 2.04921802267 150.0
12 2.05307844348 140.0
13 2.05690485134 130.0
14 2.06445798923 120.0
15 2.07188200731 110.0
16 2.07918124605 100.0
17 2.08278537032 95.0
18 2.08635983067 90.0
19 2.09342168516 85.0
20 2.10037054512 80.0
21 2.10720996965 75.0
22 2.11394335231 70.0
23 2.12057393121 65.0
24 2.1303337685 60.0
25 2.14301480025 55.0
26 2.1583624921 50.0
27 2.17318626841 45.0
28 2.18752072084 40.0
29 2.20951501454 35.0
30 2.24054924828 30.0
31 2.25285303098 28.0
32 2.26481782301 26.0
33 2.28780172993 24.0
34 2.30963016743 22.0
35 2.33041377335 20.0
36 2.35983548234 18.0
37 2.38916608436 16.0
38 2.43616264704 14.0
39 2.48287358361 12.0
40 2.54900326203 10.0
41 2.59549622183 9.0
42 2.64738297011 8.0
43 2.71933128698 7.0
44 2.79865064545 6.0
45 2.84757265914 5.5
46 2.9795483747 4.5
47 3.02284061088 4.2
48 3.06220580882 4.0
49 3.1152775914 3.75
50 3.17724783626 3.5
51 3.23146959043 3.25
52 3.32304573548 3.0
53 3.38093446333 2.8
54 3.47041049098 2.6
55 3.5445640975 2.4
56 3.6438473103 2.2
57 3.75235580415 2.0
58 3.83276430494 1.9
59 3.90330707996 1.8
60 4.00017368306 1.7
61 4.09356175757 1.6
62 4.14625210209 1.55
63 4.3131046385 1.4
64 4.44812542979 1.3
65 4.60361458562 1.2
66 4.78482519076 1.1
